# Athena data file -- Athena version 0.8.061
# Saving AG-merge as chi(k)
# .  Element=Mn   Edge=K
# Background parameters
# .  E0=6541.991  Eshift=0.000  Rbkg=1.500
# .  Standard=0: None
# .  Kweight=2.0  Edge step=0.035
# .  Fixed step=no    Flatten=yes
# .  Pre-edge range: [ -109.799 : -30.000 ]
# .  Pre-edge line: 0.013864 + -1.9672e-006 * E
# .  Normalization range: [ 61.122 : 946.885 ]
# .  Post-edge polynomial: 0.25266 + -6.5647e-005 * E + 4.9754e-009 * E^2
# .  Spline range: [ 0.000 : 1046.846 ]   Clamps: None/Strong
# Foreward FT parameters
# .  Kweight=0.5   Window=kaiser-bessel   Phase correction=off
# .  k-range: [ 3.500 : 11.500 ]   dk=2.00
# Backward FT parameters
# .  R-range: [ 1.500 : 4.700 ]
# .  dR=0.00   Window=kaiser-bessel
# Plotting parameters
# .  Multiplier=1   Y-offset=0.000
# .
# Merge in e space of:
# ** E:/vBox/Measurments/XAFS/ALBA2015.03.19-22/ALBA data (LN)/conv.data/EXAFS-180_AG_new_0.dat
# ** E:/vBox/Measurments/XAFS/ALBA2015.03.19-22/ALBA data (LN)/conv.data/EXAFS-180_AG_new_1.dat
# ** E:/vBox/Measurments/XAFS/ALBA2015.03.19-22/ALBA data (LN)/conv.data/EXAFS-180_AG_new_2.dat
#------------------------
#   k         chi       win
  0.0000000       0.40909832        0.0000000
  0.50000000E-01   0.38822378        0.0000000
  0.10000000       0.36734925        0.0000000
  0.15000000       0.34647471        0.0000000
  0.20000000       0.32560017        0.0000000
  0.25000000       0.30472563        0.0000000
  0.30000000       0.28385110        0.0000000
  0.35000000       0.26297656        0.0000000
  0.40000000       0.24210202        0.0000000
  0.45000000       0.21605166        0.0000000
  0.50000000       0.18732754        0.0000000
  0.55000000       0.15509403        0.0000000
  0.60000000       0.12296693        0.0000000
  0.65000000       0.97503854E-01    0.0000000
  0.70000000       0.66537595E-01    0.0000000
  0.75000000       0.36338997E-01    0.0000000
  0.80000000       0.82555290E-02    0.0000000
  0.85000000      -0.18538453E-01    0.0000000
  0.90000000      -0.35921880E-01    0.0000000
  0.95000000      -0.52885856E-01    0.0000000
  1.0000000      -0.64901142E-01    0.0000000
  1.0500000      -0.71384037E-01    0.0000000
  1.1000000      -0.89329063E-01    0.0000000
  1.1500000      -0.79526539E-01    0.0000000
  1.2000000      -0.90175032E-01    0.0000000
  1.2500000      -0.93421048E-01    0.0000000
  1.3000000      -0.90241238E-01    0.0000000
  1.3500000      -0.78414563E-01    0.0000000
  1.4000000      -0.52247879E-01    0.0000000
  1.4500000      -0.16040891E-01    0.0000000
  1.5000000       0.22922177E-01    0.0000000
  1.5500000       0.60449616E-01    0.0000000
  1.6000000       0.80203062E-01    0.0000000
  1.6500000       0.75142324E-01    0.0000000
  1.7000000       0.57576436E-01    0.0000000
  1.7500000       0.43104688E-01    0.0000000
  1.8000000       0.36777544E-01    0.0000000
  1.8500000       0.36484654E-01    0.0000000
  1.9000000       0.29166358E-01    0.0000000
  1.9500000       0.16045766E-01    0.0000000
  2.0000000       0.24454840E-02    0.0000000
  2.0500000      -0.52715897E-02    0.0000000
  2.1000000      -0.16694294E-01    0.0000000
  2.1500000      -0.24531652E-01    0.0000000
  2.2000000      -0.22825186E-01    0.0000000
  2.2500000      -0.24623824E-01    0.0000000
  2.3000000      -0.31694633E-01    0.0000000
  2.3500000      -0.13222388E-01    0.0000000
  2.4000000      -0.97591955E-02    0.0000000
  2.4500000      -0.45826744E-02    0.0000000
  2.5000000       0.25196560E-02    0.0000000
  2.5500000      -0.63847003E-03   0.44744946
  2.6000000       0.23632710E-02   0.45622059
  2.6500000       0.60351159E-03   0.46498761
  2.7000000       0.55939776E-02   0.47374847
  2.7500000      -0.40773299E-02   0.48250111
  2.8000000       0.68975287E-02   0.49124344
  2.8500000      -0.45828030E-02   0.49997341
  2.9000000       0.37942698E-02   0.50868894
  2.9500000       0.32440973E-02   0.51738796
  3.0000000       0.61950465E-02   0.52606839
  3.0500000       0.42889343E-02   0.53472816
  3.1000000       0.75585735E-02   0.54336518
  3.1500000      -0.75851254E-04   0.55197740
  3.2000000       0.84832845E-02   0.56056273
  3.2500000       0.42517863E-02   0.56911910
  3.3000000       0.68790130E-02   0.57764445
  3.3500000      -0.23854654E-02   0.58613670
  3.4000000      -0.41741585E-02   0.59459381
  3.4500000      -0.46947749E-02   0.60301371
  3.5000000      -0.51803808E-02   0.61139435
  3.5500000       0.30400343E-03   0.61973368
  3.6000000       0.11582860E-01   0.62802968
  3.6500000       0.10829574E-01   0.63628029
  3.7000000       0.22008048E-01   0.64448351
  3.7500000       0.10264608E-01   0.65263730
  3.8000000       0.14734170E-01   0.66073968
  3.8500000       0.81226449E-02   0.66878863
  3.9000000      -0.24967607E-02   0.67678217
  3.9500000      -0.15132166E-01   0.68471832
  4.0000000      -0.20713190E-01   0.69259511
  4.0500000      -0.24345271E-01   0.70041059
  4.1000000      -0.38517078E-01   0.70816282
  4.1500000      -0.39837251E-01   0.71584987
  4.2000000      -0.28388750E-01   0.72346982
  4.2500000      -0.18142528E-01   0.73102077
  4.3000000      -0.12353636E-01   0.73850083
  4.3500000       0.45021468E-02   0.74590813
  4.4000000       0.14154285E-01   0.75324082
  4.4500000       0.14694359E-01   0.76049705
  4.5000000       0.13064945E-01   0.76767500
  4.5500000       0.19880249E-01   0.77477287
  4.6000000       0.19424964E-01   0.78178887
  4.6500000       0.21264402E-01   0.78872123
  4.7000000       0.18242691E-01   0.79556820
  4.7500000       0.27216746E-01   0.80232805
  4.8000000       0.18931448E-01   0.80899908
  4.8500000       0.14242477E-01   0.81557959
  4.9000000       0.26363701E-02   0.82206791
  4.9500000      -0.10135562E-01   0.82846240
  5.0000000      -0.10359924E-01   0.83476144
  5.0500000      -0.77890002E-03   0.84096342
  5.1000000       0.74847700E-02   0.84706677
  5.1500000       0.81935286E-02   0.85306993
  5.2000000       0.95401564E-02   0.85897137
  5.2500000       0.89304329E-02   0.86476959
  5.3000000       0.25453418E-03   0.87046311
  5.3500000      -0.26251078E-02   0.87605046
  5.4000000      -0.78207811E-02   0.88153024
  5.4500000      -0.15880096E-01   0.88690102
  5.5000000      -0.16514488E-01   0.89216144
  5.5500000      -0.24064564E-01   0.89731014
  5.6000000      -0.25715832E-01   0.90234582
  5.6500000      -0.29439012E-01   0.90726716
  5.7000000      -0.27439148E-01   0.91207292
  5.7500000      -0.21998552E-01   0.91676186
  5.8000000      -0.25182341E-01   0.92133276
  5.8500000      -0.20563754E-01   0.92578446
  5.9000000      -0.39366271E-02   0.93011581
  5.9500000      -0.17729573E-02   0.93432569
  6.0000000       0.59600686E-02   0.93841302
  6.0500000       0.15201331E-01   0.94237674
  6.1000000       0.17126050E-01   0.94621583
  6.1500000       0.20943989E-01   0.94992930
  6.2000000       0.35184646E-01   0.95351620
  6.2500000       0.24625896E-01   0.95697559
  6.3000000       0.31421175E-01   0.96030657
  6.3500000       0.44510927E-01   0.96350830
  6.4000000       0.32748215E-01   0.96657994
  6.4500000       0.29922797E-01   0.96952069
  6.5000000       0.20273699E-01   0.97232980
  6.5500000       0.15161947E-01   0.97500654
  6.6000000       0.74004552E-02   0.97755021
  6.6500000      -0.49947916E-02   0.97996015
  6.7000000      -0.11967996E-01   0.98223574
  6.7500000      -0.16076646E-01   0.98437639
  6.8000000      -0.14909787E-01   0.98638155
  6.8500000      -0.22339094E-01   0.98825069
  6.9000000      -0.29513446E-01   0.98998333
  6.9500000      -0.35795305E-01   0.99157902
  7.0000000      -0.39955841E-01   0.99303735
  7.0500000      -0.27459520E-01   0.99435793
  7.1000000      -0.23921676E-01   0.99554043
  7.1500000      -0.22306132E-01   0.99658453
  7.2000000      -0.14181217E-01   0.99748997
  7.2500000      -0.19603549E-02   0.99825651
  7.3000000       0.10343266E-02   0.99888395
  7.3500000      -0.72687933E-02   0.99937213
  7.4000000      -0.24829769E-02   0.99972091
  7.4500000       0.12455984E-01   0.99993022
  7.5000000       0.65291787E-02    1.0000000
  7.5500000       0.19871204E-01   0.99993022
  7.6000000       0.13409288E-01   0.99972091
  7.6500000       0.12454219E-01   0.99937213
  7.7000000       0.16682826E-01   0.99888395
  7.7500000       0.17531925E-01   0.99825651
  7.8000000       0.27562325E-01   0.99748997
  7.8500000       0.23189185E-01   0.99658453
  7.9000000       0.18849404E-01   0.99554043
  7.9500000       0.53906530E-02   0.99435793
  8.0000000       0.17056811E-01   0.99303735
  8.0500000       0.13388155E-01   0.99157902
  8.1000000       0.14084849E-01   0.98998333
  8.1500000       0.60729857E-02   0.98825069
  8.2000000       0.21978482E-02   0.98638155
  8.2500000       0.32143016E-02   0.98437639
  8.3000000       0.49119498E-02   0.98223574
  8.3500000      -0.19633673E-01   0.97996015
  8.4000000      -0.36476246E-01   0.97755021
  8.4500000      -0.41653424E-01   0.97500654
  8.5000000      -0.36499441E-01   0.97232980
  8.5500000      -0.29376975E-01   0.96952069
  8.6000000      -0.29747102E-01   0.96657994
  8.6500000      -0.16864148E-01   0.96350830
  8.7000000      -0.94761566E-02   0.96030657
  8.7500000       0.56412340E-02   0.95697559
  8.8000000       0.67673707E-02   0.95351620
  8.8500000       0.44999509E-02   0.94992930
  8.9000000       0.11837767E-01   0.94621583
  8.9500000       0.68602334E-02   0.94237674
  9.0000000       0.11878986E-01   0.93841302
  9.0500000       0.15182789E-01   0.93432569
  9.1000000       0.13703770E-01   0.93011581
  9.1500000       0.18410042E-01   0.92578446
  9.2000000       0.24690187E-01   0.92133276
  9.2500000       0.14493605E-01   0.91676186
  9.3000000       0.10538865E-01   0.91207292
  9.3500000       0.64276499E-02   0.90726716
  9.4000000      -0.96331600E-04   0.90234582
  9.4500000       0.50847494E-02   0.89731014
  9.5000000       0.37465052E-03   0.89216144
  9.5500000      -0.92352964E-03   0.88690102
  9.6000000      -0.14223575E-02   0.88153024
  9.6500000      -0.25373127E-02   0.87605046
  9.7000000      -0.65232399E-02   0.87046311
  9.7500000      -0.11014061E-01   0.86476959
  9.8000000      -0.54927840E-02   0.85897137
  9.8500000      -0.93108828E-02   0.85306993
  9.9000000      -0.97947096E-02   0.84706677
  9.9500000      -0.21082717E-01   0.84096342
  10.000000      -0.17986205E-01   0.83476144
  10.050000      -0.16520096E-01   0.82846240
  10.100000      -0.10246121E-01   0.82206791
  10.150000      -0.26606736E-02   0.81557959
  10.200000      -0.63043689E-02   0.80899908
  10.250000       0.85247574E-02   0.80232805
  10.300000       0.68830188E-02   0.79556820
  10.350000       0.59221630E-02   0.78872123
  10.400000       0.12992180E-01   0.78178887
  10.450000       0.16179093E-01   0.77477287
  10.500000       0.12949522E-01   0.76767500
  10.550000       0.11915860E-01   0.76049705
  10.600000       0.77069683E-02   0.75324082
  10.650000       0.11974095E-01   0.74590813
  10.700000       0.64291148E-02   0.73850083
  10.750000      -0.33228534E-03   0.73102077
  10.800000       0.93474634E-02   0.72346982
  10.850000       0.42268206E-02   0.71584987
  10.900000      -0.30323595E-02   0.70816282
  10.950000      -0.57137249E-03   0.70041059
  11.000000      -0.16845460E-02   0.69259511
  11.050000      -0.74049880E-02   0.68471832
  11.100000      -0.99770118E-02   0.67678217
  11.150000      -0.43424588E-02   0.66878863
  11.200000      -0.60131409E-02   0.66073968
  11.250000      -0.12597590E-01   0.65263730
  11.300000      -0.93629823E-02   0.64448351
  11.350000      -0.71137508E-02   0.63628029
  11.400000      -0.11202568E-01   0.62802968
  11.450000      -0.52927364E-02   0.61973368
  11.500000      -0.41797556E-02   0.61139435
  11.550000      -0.63337326E-02   0.60301371
  11.600000      -0.41732270E-02   0.59459381
  11.650000      -0.29480277E-02   0.58613670
  11.700000       0.37805304E-02   0.57764445
  11.750000       0.30149690E-02   0.56911910
  11.800000       0.43493458E-02   0.56056273
  11.850000       0.10179248E-01   0.55197740
  11.900000       0.87555607E-02   0.54336518
  11.950000       0.80432088E-02   0.53472816
  12.000000       0.10669025E-01   0.52606839
  12.050000       0.94758469E-02   0.51738796
  12.100000       0.60139053E-02   0.50868894
  12.150000       0.60898658E-02   0.49997341
  12.200000       0.77044151E-02   0.49124344
  12.250000       0.78706930E-02   0.48250111
  12.300000       0.36889213E-02   0.47374847
  12.350000      -0.96459069E-03   0.46498761
  12.400000      -0.59592156E-02   0.45622059
  12.450000      -0.40543639E-02   0.44744946
  12.500000      -0.12073822E-02    0.0000000
  12.550000      -0.17891659E-02    0.0000000
  12.600000      -0.34726167E-02    0.0000000
  12.650000      -0.78257309E-02    0.0000000
  12.700000      -0.14397040E-01    0.0000000
  12.750000      -0.85659697E-02    0.0000000
  12.800000      -0.49899898E-02    0.0000000
  12.850000      -0.44654553E-02    0.0000000
  12.900000      -0.22623907E-02    0.0000000
  12.950000      -0.60932733E-02    0.0000000
  13.000000       0.11746880E-02    0.0000000
  13.050000       0.19384962E-02    0.0000000
  13.100000       0.25854070E-02    0.0000000
  13.150000       0.25722796E-02    0.0000000
  13.200000       0.61307429E-03    0.0000000
  13.250000       0.28493486E-03    0.0000000
  13.300000       0.54656516E-02    0.0000000
  13.350000       0.70738674E-02    0.0000000
  13.400000       0.13921182E-02    0.0000000
  13.450000       0.16817127E-02    0.0000000
  13.500000       0.59806456E-02    0.0000000
  13.550000       0.56586133E-02    0.0000000
  13.600000       0.12171327E-02    0.0000000
  13.650000      -0.21226631E-02    0.0000000
  13.700000      -0.19987824E-02    0.0000000
  13.750000      -0.15069596E-02    0.0000000
  13.800000       0.70621234E-04    0.0000000
  13.850000      -0.12890329E-02    0.0000000
  13.900000      -0.54978077E-03    0.0000000
  13.950000      -0.48432940E-03    0.0000000
  14.000000      -0.33538986E-03    0.0000000
  14.050000      -0.19834978E-03    0.0000000
  14.100000      -0.69695770E-02    0.0000000
  14.150000      -0.57364579E-02    0.0000000
  14.200000      -0.22191973E-02    0.0000000
  14.250000      -0.53992829E-03    0.0000000
  14.300000       0.25211095E-02    0.0000000
  14.350000       0.48822278E-02    0.0000000
  14.400000      -0.80617429E-03    0.0000000
  14.450000      -0.13974790E-02    0.0000000
  14.500000       0.42532610E-02    0.0000000
  14.550000       0.25141825E-02    0.0000000
  14.600000       0.17112353E-02    0.0000000
  14.650000       0.40469272E-02    0.0000000
  14.700000       0.12289368E-02    0.0000000
  14.750000      -0.12910907E-02    0.0000000
  14.800000      -0.16455242E-02    0.0000000
  14.850000      -0.53971154E-03    0.0000000
  14.900000       0.21499509E-02    0.0000000
  14.950000       0.18198067E-02    0.0000000
  15.000000      -0.38238983E-03    0.0000000
  15.050000      -0.33833428E-02    0.0000000
  15.100000      -0.17808794E-03    0.0000000
  15.150000       0.18757904E-02    0.0000000
  15.200000      -0.58069585E-03    0.0000000
  15.250000      -0.33283319E-03    0.0000000
  15.300000      -0.43744917E-02    0.0000000
  15.350000      -0.81276879E-02    0.0000000
  15.400000      -0.16671144E-02    0.0000000
  15.450000      -0.28896382E-02    0.0000000
  15.500000      -0.12981796E-02    0.0000000
  15.550000       0.39245649E-02    0.0000000
  15.600000       0.10352071E-03    0.0000000
  15.650000      -0.22080875E-02    0.0000000
  15.700000      -0.26832531E-02    0.0000000
  15.750000       0.25912283E-03    0.0000000
  15.800000       0.66193486E-02    0.0000000
  15.850000       0.77165582E-02    0.0000000
  15.900000       0.22228418E-02    0.0000000
  15.950000       0.21083295E-02    0.0000000
  16.000000      -0.97427631E-03    0.0000000
  16.050000      -0.72901845E-03    0.0000000
  16.100000       0.51898262E-02    0.0000000
  16.150000       0.27283731E-02    0.0000000
  16.200000       0.54663082E-03    0.0000000
  16.250000      -0.20789676E-02    0.0000000
  16.300000      -0.30040989E-02    0.0000000
  16.350000       0.29983771E-02    0.0000000
  16.400000       0.14017578E-02    0.0000000
  16.450000      -0.11159318E-02    0.0000000
  16.500000      -0.56522038E-02    0.0000000
